wavelength flux
5.21725	3533792.0
5.24749	3677514.0
5.27773	3705262.0
5.30797	3582657.0
5.33821	3598874.0
5.36845	3720366.8238
5.39869	3660951.66766
5.42893	3542486.18155
5.45917	3518179.02778
5.48941	3538626.23347
5.51965	3712792.77686
5.54989	3534243.24272
5.58013	3428319.02381
5.61037	3386886.37434
5.64061	3361556.74537
5.67085	3367385.19736
5.70109	3573844.98115
5.73133	3414231.70734
5.76157	3258776.21726
5.79181	3232124.31349
